PE UV       SUBTECH     SPECTRUM    ASCII       PEDS        4.00        
   -1
dr.Sample.asc
22/05/19
16:37:25.00
22/05/19
16:37:25.00
Administrator

250.000000
1
Lambda 1050
1050L1808311
PerkinElmer UV WinLab 6.4.0.973 / 2.02.11 Lambda 900 UV/VIS/NIR. May 23 2018 11:23:04

0
0
3350/servo 860.8/2
0
0
UV/VIS
1
1
1
CommonBeamDepol.RBeamAtt.SBeamAtt.60mm sphere
0
0
0
0
Program
 
0
3350/0.2 860.8/1
0
0
0
 
 
 
0
 
860.8
319.2
860.8
Front
100
on
S:100 R:100
 
0
0
0
 
0
 
 
 
0
 
 
0
0
0
0
0
 
 
 
 
0
0


0
0
#HDR
-1
-1
#GR
nm
%R
1.0
0.0
800.000000
-2.000000
276
8
91.113149
17.446172
#DATA
800.000000	17.460554
798.000000	17.446172
796.000000	17.451266
794.000000	17.471175
792.000000	17.489054
790.000000	17.527264
788.000000	17.584396
786.000000	17.571602
784.000000	17.568277
782.000000	17.577338
780.000000	17.609149
778.000000	17.602847
776.000000	17.677433
774.000000	17.682445
772.000000	17.679912
770.000000	17.714562
768.000000	17.729901
766.000000	17.757793
764.000000	17.773423
762.000000	17.814831
760.000000	17.843535
758.000000	17.853347
756.000000	17.868551
754.000000	17.908351
752.000000	17.960429
750.000000	17.976686
748.000000	18.007753
746.000000	18.056503
744.000000	18.091417
742.000000	18.128136
740.000000	18.160212
738.000000	18.212677
736.000000	18.229233
734.000000	18.265004
732.000000	18.309931
730.000000	18.337441
728.000000	18.374290
726.000000	18.408030
724.000000	18.429698
722.000000	18.479290
720.000000	18.489603
718.000000	18.501181
716.000000	18.559046
714.000000	18.581477
712.000000	18.598955
710.000000	18.622266
708.000000	18.646536
706.000000	18.685679
704.000000	18.702336
702.000000	18.713814
700.000000	18.745974
698.000000	18.772148
696.000000	18.790168
694.000000	18.804325
692.000000	18.819084
690.000000	18.857818
688.000000	18.903701
686.000000	18.936065
684.000000	18.957775
682.000000	19.001138
680.000000	19.040384
678.000000	19.092692
676.000000	19.150800
674.000000	19.183173
672.000000	19.233319
670.000000	19.262406
668.000000	19.333749
666.000000	19.399056
664.000000	19.453342
662.000000	19.501194
660.000000	19.547136
658.000000	19.625920
656.000000	19.681915
654.000000	19.735214
652.000000	19.794387
650.000000	19.851101
648.000000	19.884030
646.000000	19.924186
644.000000	19.970131
642.000000	19.999863
640.000000	20.046369
638.000000	20.071504
636.000000	20.088844
634.000000	20.121985
632.000000	20.174225
630.000000	20.189935
628.000000	20.214325
626.000000	20.265564
624.000000	20.306025
622.000000	20.327647
620.000000	20.364346
618.000000	20.410924
616.000000	20.456786
614.000000	20.528989
612.000000	20.578464
610.000000	20.643567
608.000000	20.705362
606.000000	20.773518
604.000000	20.846547
602.000000	20.916045
600.000000	20.984618
598.000000	21.065685
596.000000	21.151886
594.000000	21.211075
592.000000	21.271850
590.000000	21.319723
588.000000	21.368521
586.000000	21.424379
584.000000	21.476228
582.000000	21.512030
580.000000	21.547379
578.000000	21.592668
576.000000	21.638817
574.000000	21.679927
572.000000	21.723682
570.000000	21.784681
568.000000	21.850550
566.000000	21.907586
564.000000	21.979234
562.000000	22.053377
560.000000	22.129130
558.000000	22.226202
556.000000	22.329038
554.000000	22.417389
552.000000	22.511146
550.000000	22.614759
548.000000	22.698627
546.000000	22.784296
544.000000	22.860797
542.000000	22.930660
540.000000	22.993130
538.000000	23.051022
536.000000	23.115394
534.000000	23.193413
532.000000	23.272451
530.000000	23.361791
528.000000	23.457285
526.000000	23.554300
524.000000	23.663729
522.000000	23.780429
520.000000	23.906989
518.000000	24.034059
516.000000	24.145577
514.000000	24.254442
512.000000	24.370922
510.000000	24.472684
508.000000	24.555185
506.000000	24.635484
504.000000	24.711401
502.000000	24.773243
500.000000	24.833400
498.000000	24.913130
496.000000	24.990672
494.000000	25.067605
492.000000	25.154623
490.000000	25.284611
488.000000	25.423896
486.000000	25.578550
484.000000	25.784107
482.000000	25.993686
480.000000	26.201935
478.000000	26.397807
476.000000	26.559717
474.000000	26.703925
472.000000	26.835739
470.000000	26.950203
468.000000	27.064243
466.000000	27.173315
464.000000	27.306981
462.000000	27.473610
460.000000	27.673611
458.000000	27.892069
456.000000	28.112857
454.000000	28.351370
452.000000	28.582176
450.000000	28.762119
448.000000	28.933203
446.000000	29.096059
444.000000	29.246039
442.000000	29.410349
440.000000	29.619883
438.000000	29.837918
436.000000	30.055636
434.000000	30.305369
432.000000	30.491667
430.000000	30.629882
428.000000	30.756905
426.000000	30.975747
424.000000	31.419556
422.000000	32.168031
420.000000	33.235489
418.000000	34.460389
416.000000	35.732063
414.000000	36.903588
412.000000	37.916481
410.000000	38.801862
408.000000	39.570246
406.000000	40.311055
404.000000	41.014722
402.000000	41.678803
400.000000	42.325950
398.000000	42.940679
396.000000	43.540515
394.000000	44.157776
392.000000	44.744471
390.000000	45.315998
388.000000	45.810841
386.000000	46.284659
384.000000	46.769666
382.000000	47.274005
380.000000	47.869817
378.000000	48.202728
376.000000	48.968940
374.000000	50.147482
372.000000	51.274814
370.000000	52.452827
368.000000	54.134740
366.000000	55.729041
364.000000	57.269857
362.000000	58.571082
360.000000	59.718053
358.000000	60.781781
356.000000	61.918853
354.000000	63.082570
352.000000	64.334393
350.000000	65.516860
348.000000	66.535242
346.000000	67.525036
344.000000	68.080098
342.000000	68.135976
340.000000	68.097331
338.000000	68.368842
336.000000	67.941356
334.000000	68.061289
332.000000	67.668627
330.000000	67.937124
328.000000	67.768510
326.000000	67.504134
324.000000	67.474565
322.000000	67.454311
320.000000	67.708124
318.000000	68.087634
316.000000	68.221271
314.000000	68.413719
312.000000	68.401021
310.000000	68.603819
308.000000	69.104078
306.000000	69.995188
304.000000	70.797288
302.000000	71.276902
300.000000	71.442020
298.000000	71.655312
296.000000	71.757457
294.000000	71.885808
292.000000	71.835166
290.000000	71.801773
288.000000	71.884688
286.000000	72.303268
284.000000	73.012719
282.000000	73.714048
280.000000	74.642562
278.000000	75.504831
276.000000	76.172186
274.000000	76.950149
272.000000	77.929784
270.000000	78.647535
268.000000	79.398927
266.000000	80.375054
264.000000	81.453779
262.000000	82.591246
260.000000	83.541783
258.000000	84.656532
256.000000	85.900213
254.000000	87.482043
252.000000	89.055479
250.000000	91.113149
