PE UV       SUBTECH     SPECTRUM    ASCII       PEDS        4.00        
   -1
c.Sample.asc
22/05/19
15:38:04.00
22/05/19
15:38:04.00
Administrator

400.000000
1
Lambda 1050
1050L1808311
PerkinElmer UV WinLab 6.4.0.973 / 2.02.11 Lambda 900 UV/VIS/NIR. May 23 2018 11:23:04

0
0
3350/servo 860.8/2
0
0
UV/VIS
1
1
1
CommonBeamDepol.RBeamAtt.SBeamAtt.60mm sphere
0
0
0
0
Program
 
0
3350/0.2 860.8/1
0
0
0
 
 
 
0
 
860.8
319.2
860.8
Front
100
on
S:100 R:100
 
0
0
0
 
0
 
 
 
0
 
 
0
0
0
0
0
 
 
 
 
0
0


0
0
#HDR
-1
-1
#GR
nm
%T
1.0
0.0
850.000000
-3.000000
151
8
81.258337
51.478937
#DATA
850.000000	80.857175
847.000000	80.748808
844.000000	80.678743
841.000000	80.504903
838.000000	80.240619
835.000000	80.234800
832.000000	80.065170
829.000000	80.003274
826.000000	79.959118
823.000000	79.984279
820.000000	80.028277
817.000000	79.939602
814.000000	80.097436
811.000000	80.207468
808.000000	80.549735
805.000000	80.448829
802.000000	80.581663
799.000000	80.780205
796.000000	80.876726
793.000000	81.027137
790.000000	81.056038
787.000000	81.130400
784.000000	81.258337
781.000000	81.204386
778.000000	81.210514
775.000000	81.134509
772.000000	81.055359
769.000000	80.929106
766.000000	80.816782
763.000000	80.623596
760.000000	80.396298
757.000000	80.181047
754.000000	79.980733
751.000000	79.797572
748.000000	79.578276
745.000000	79.397675
742.000000	79.388283
739.000000	79.194966
736.000000	79.071450
733.000000	79.081446
730.000000	79.113810
727.000000	79.131985
724.000000	79.248618
721.000000	79.342901
718.000000	79.455407
715.000000	79.629331
712.000000	79.737913
709.000000	79.881760
706.000000	79.914924
703.000000	80.013787
700.000000	80.017812
697.000000	79.985515
694.000000	79.891018
691.000000	79.843385
688.000000	79.492932
685.000000	79.320350
682.000000	79.068067
679.000000	78.923798
676.000000	78.630753
673.000000	78.476411
670.000000	78.309935
667.000000	78.184608
664.000000	78.124118
661.000000	78.079414
658.000000	78.147335
655.000000	78.163912
652.000000	78.258898
649.000000	78.346631
646.000000	78.488967
643.000000	78.637117
640.000000	78.737001
637.000000	78.765932
634.000000	78.660997
631.000000	78.511777
628.000000	78.439878
625.000000	78.183592
622.000000	77.915847
619.000000	77.673958
616.000000	77.459680
613.000000	77.281359
610.000000	77.103594
607.000000	77.049892
604.000000	77.042446
601.000000	77.080471
598.000000	77.247989
595.000000	77.385872
592.000000	77.468215
589.000000	77.561722
586.000000	77.545883
583.000000	77.486943
580.000000	77.333750
577.000000	77.036063
574.000000	76.798730
571.000000	76.502253
568.000000	76.272668
565.000000	76.021148
562.000000	76.003706
559.000000	75.945381
556.000000	76.012432
553.000000	76.124914
550.000000	76.265761
547.000000	76.376569
544.000000	76.352780
541.000000	76.232433
538.000000	76.067574
535.000000	75.743819
532.000000	75.368336
529.000000	75.001695
526.000000	74.731137
523.000000	74.598382
520.000000	74.529499
517.000000	74.538134
514.000000	74.612127
511.000000	74.694704
508.000000	74.642265
505.000000	74.475235
502.000000	74.156839
499.000000	73.749149
496.000000	73.354141
493.000000	73.076695
490.000000	72.880733
487.000000	72.863337
484.000000	72.878752
481.000000	72.896827
478.000000	72.643599
475.000000	72.310977
472.000000	71.815988
469.000000	71.301761
466.000000	70.867499
463.000000	70.630083
460.000000	70.526475
457.000000	70.363613
454.000000	70.163009
451.000000	69.705890
448.000000	69.022470
445.000000	68.344417
442.000000	67.880074
439.000000	67.442491
436.000000	66.965549
433.000000	66.132145
430.000000	64.888463
427.000000	63.270094
424.000000	61.412800
421.000000	59.141064
418.000000	56.427795
415.000000	53.912903
412.000000	52.242109
409.000000	51.478937
406.000000	51.519168
403.000000	51.992553
400.000000	52.743201
