PE UV       SUBTECH     SPECTRUM    ASCII       PEDS        4.00        
   -1
Sample831.asc
22/03/18
15:12:32.00
22/03/18
15:12:32.00
Administrator

200,000000
1
Lambda 1050
1050L1808311
PerkinElmer UV WinLab 6.4.0.973 / 2.02.11 Lambda 900 UV/VIS/NIR, May 23 2018 11:23:04

0
0
3350/servo 1800,8/servo 860,8/2
0
0
UV/VIS
1
1
1
CommonBeamDepol,RBeamAtt,SBeamAtt,uv/vis/nir detector, TDS WB InGaAs Detector
0
0
0
0
Program
 
0
3350/0,2 1800,8/0,2 860,8/0,2
0
0
0
 
 
 
0
 
860,8
319,2
1800,8 860,8
Front
100
on
S:100 R:100
 
0
0
0
 
0
 
 
 
0
 
 
0
0
0
0
0
 
 
 
 
0
0


0
0
#HDR
-1
-1
#GR
nm
%T
1.0
0.0
450,000000
-0,500000
501
8
5,336507
0,268649
#DATA
450,000000	5,335125
449,500000	5,336507
449,000000	5,323981
448,500000	5,318340
448,000000	5,306402
447,500000	5,297950
447,000000	5,291773
446,500000	5,285010
446,000000	5,275720
445,500000	5,264425
445,000000	5,255128
444,500000	5,244361
444,000000	5,230715
443,500000	5,218726
443,000000	5,211594
442,500000	5,204602
442,000000	5,193369
441,500000	5,186314
441,000000	5,174978
440,500000	5,161387
440,000000	5,151267
439,500000	5,139116
439,000000	5,127190
438,500000	5,114440
438,000000	5,100797
437,500000	5,089900
437,000000	5,077745
436,500000	5,061884
436,000000	5,041020
435,500000	5,028994
435,000000	5,013188
434,500000	4,997137
434,000000	4,980054
433,500000	4,967393
433,000000	4,951870
432,500000	4,932862
432,000000	4,917971
431,500000	4,902174
431,000000	4,883116
430,500000	4,861809
430,000000	4,842682
429,500000	4,821380
429,000000	4,801955
428,500000	4,779284
428,000000	4,756777
427,500000	4,731986
427,000000	4,706016
426,500000	4,675430
426,000000	4,644280
425,500000	4,610041
425,000000	4,574910
424,500000	4,536220
424,000000	4,492142
423,500000	4,451474
423,000000	4,402893
422,500000	4,350304
422,000000	4,295979
421,500000	4,242886
421,000000	4,183146
420,500000	4,119015
420,000000	4,054699
419,500000	3,989199
419,000000	3,920346
418,500000	3,851446
418,000000	3,782680
417,500000	3,711512
417,000000	3,641521
416,500000	3,570338
416,000000	3,500672
415,500000	3,432695
415,000000	3,367494
414,500000	3,300719
414,000000	3,239708
413,500000	3,180200
413,000000	3,127369
412,500000	3,073783
412,000000	3,025948
411,500000	2,980580
411,000000	2,936809
410,500000	2,898121
410,000000	2,862810
409,500000	2,829941
409,000000	2,801322
408,500000	2,775293
408,000000	2,748373
407,500000	2,726779
407,000000	2,707257
406,500000	2,689744
406,000000	2,670378
405,500000	2,656339
405,000000	2,644059
404,500000	2,629090
404,000000	2,619426
403,500000	2,610064
403,000000	2,600364
402,500000	2,591438
402,000000	2,585601
401,500000	2,579560
401,000000	2,572423
400,500000	2,566504
400,000000	2,562226
399,500000	2,556590
399,000000	2,549066
398,500000	2,543139
398,000000	2,537738
397,500000	2,534396
397,000000	2,527394
396,500000	2,522162
396,000000	2,514574
395,500000	2,507888
395,000000	2,502411
394,500000	2,496647
394,000000	2,489913
393,500000	2,481180
393,000000	2,474943
392,500000	2,471075
392,000000	2,463061
391,500000	2,456659
391,000000	2,449676
390,500000	2,442257
390,000000	2,436834
389,500000	2,431671
389,000000	2,425698
388,500000	2,419457
388,000000	2,414493
387,500000	2,407863
387,000000	2,402828
386,500000	2,397028
386,000000	2,391032
385,500000	2,386447
385,000000	2,383925
384,500000	2,381265
384,000000	2,376168
383,500000	2,373652
383,000000	2,371112
382,500000	2,368651
382,000000	2,366313
381,500000	2,363894
381,000000	2,361372
380,500000	2,360988
380,000000	2,361133
379,500000	2,359223
379,000000	2,322179
378,500000	2,253832
378,000000	2,222209
377,500000	2,225305
377,000000	2,226861
376,500000	2,231322
376,000000	2,236223
375,500000	2,235116
375,000000	2,241248
374,500000	2,239258
374,000000	2,238431
373,500000	2,244020
373,000000	2,242257
372,500000	2,246848
372,000000	2,246296
371,500000	2,240785
371,000000	2,242250
370,500000	2,243007
370,000000	2,235460
369,500000	2,226482
369,000000	2,225155
368,500000	2,227409
368,000000	2,217858
367,500000	2,212808
367,000000	2,211508
366,500000	2,205120
366,000000	2,197380
365,500000	2,190714
365,000000	2,183856
364,500000	2,180243
364,000000	2,173208
363,500000	2,167236
363,000000	2,161163
362,500000	2,152820
362,000000	2,140208
361,500000	2,130045
361,000000	2,120183
360,500000	2,116226
360,000000	2,106857
359,500000	2,091165
359,000000	2,081918
358,500000	2,072814
358,000000	2,059236
357,500000	2,039981
357,000000	2,028400
356,500000	2,019500
356,000000	2,006117
355,500000	1,989804
355,000000	1,974836
354,500000	1,963831
354,000000	1,946370
353,500000	1,933686
353,000000	1,922424
352,500000	1,907525
352,000000	1,887511
351,500000	1,867845
351,000000	1,852957
350,500000	1,842863
350,000000	1,833867
349,500000	1,818236
349,000000	1,806136
348,500000	1,791480
348,000000	1,776107
347,500000	1,763424
347,000000	1,750082
346,500000	1,733606
346,000000	1,721779
345,500000	1,709529
345,000000	1,697832
344,500000	1,687278
344,000000	1,679417
343,500000	1,663729
343,000000	1,647287
342,500000	1,638797
342,000000	1,629799
341,500000	1,614777
341,000000	1,609654
340,500000	1,598892
340,000000	1,590206
339,500000	1,582919
339,000000	1,571341
338,500000	1,556270
338,000000	1,547376
337,500000	1,536015
337,000000	1,525244
336,500000	1,522769
336,000000	1,512869
335,500000	1,502046
335,000000	1,497696
334,500000	1,489782
334,000000	1,483038
333,500000	1,470748
333,000000	1,461483
332,500000	1,454223
332,000000	1,445822
331,500000	1,434775
331,000000	1,425763
330,500000	1,416524
330,000000	1,414954
329,500000	1,404841
329,000000	1,399997
328,500000	1,386164
328,000000	1,375548
327,500000	1,367534
327,000000	1,360645
326,500000	1,350464
326,000000	1,339436
325,500000	1,335306
325,000000	1,319352
324,500000	1,312613
324,000000	1,304179
323,500000	1,297043
323,000000	1,286145
322,500000	1,275300
322,000000	1,268310
321,500000	1,260184
321,000000	1,255152
320,500000	1,245810
320,000000	1,244765
319,500000	1,239707
319,000000	1,247191
318,500000	1,239693
318,000000	1,235533
317,500000	1,226998
317,000000	1,224646
316,500000	1,217388
316,000000	1,209082
315,500000	1,205739
315,000000	1,201088
314,500000	1,197961
314,000000	1,193687
313,500000	1,184307
313,000000	1,184981
312,500000	1,179073
312,000000	1,175949
311,500000	1,172389
311,000000	1,171666
310,500000	1,161351
310,000000	1,164068
309,500000	1,159997
309,000000	1,156280
308,500000	1,154285
308,000000	1,150596
307,500000	1,146891
307,000000	1,145396
306,500000	1,146452
306,000000	1,142299
305,500000	1,143261
305,000000	1,147606
304,500000	1,142988
304,000000	1,143510
303,500000	1,141394
303,000000	1,143971
302,500000	1,142099
302,000000	1,139311
301,500000	1,144927
301,000000	1,143546
300,500000	1,140330
300,000000	1,138177
299,500000	1,136300
299,000000	1,136494
298,500000	1,131750
298,000000	1,129401
297,500000	1,129216
297,000000	1,124853
296,500000	1,119616
296,000000	1,118153
295,500000	1,114965
295,000000	1,109007
294,500000	1,105668
294,000000	1,100885
293,500000	1,097509
293,000000	1,092803
292,500000	1,086268
292,000000	1,080795
291,500000	1,077761
291,000000	1,070901
290,500000	1,064104
290,000000	1,054202
289,500000	1,048816
289,000000	1,039789
288,500000	1,030535
288,000000	1,020666
287,500000	1,008617
287,000000	0,995058
286,500000	0,978613
286,000000	0,965949
285,500000	0,948838
285,000000	0,932236
284,500000	0,913398
284,000000	0,893805
283,500000	0,873707
283,000000	0,854664
282,500000	0,831372
282,000000	0,807835
281,500000	0,786188
281,000000	0,760941
280,500000	0,734466
280,000000	0,709066
279,500000	0,683758
279,000000	0,658122
278,500000	0,632324
278,000000	0,605783
277,500000	0,578274
277,000000	0,551897
276,500000	0,525659
276,000000	0,501632
275,500000	0,477677
275,000000	0,454373
274,500000	0,432833
274,000000	0,413144
273,500000	0,392533
273,000000	0,376277
272,500000	0,358141
272,000000	0,343832
271,500000	0,332040
271,000000	0,322469
270,500000	0,311843
270,000000	0,305429
269,500000	0,300725
269,000000	0,296325
268,500000	0,294087
268,000000	0,290579
267,500000	0,288389
267,000000	0,286289
266,500000	0,284464
266,000000	0,281914
265,500000	0,277657
265,000000	0,275573
264,500000	0,274189
264,000000	0,273850
263,500000	0,272337
263,000000	0,270702
262,500000	0,268649
262,000000	0,268841
261,500000	0,270178
261,000000	0,270955
260,500000	0,271752
260,000000	0,271973
259,500000	0,270441
259,000000	0,271967
258,500000	0,272195
258,000000	0,271703
257,500000	0,271522
257,000000	0,273301
256,500000	0,274827
256,000000	0,273543
255,500000	0,271297
255,000000	0,272683
254,500000	0,272750
254,000000	0,273334
253,500000	0,272470
253,000000	0,272800
252,500000	0,271682
252,000000	0,271618
251,500000	0,272506
251,000000	0,272193
250,500000	0,270957
250,000000	0,269089
249,500000	0,269706
249,000000	0,271632
248,500000	0,271574
248,000000	0,271926
247,500000	0,270291
247,000000	0,269738
246,500000	0,270131
246,000000	0,270769
245,500000	0,271386
245,000000	0,271935
244,500000	0,273003
244,000000	0,272631
243,500000	0,271753
243,000000	0,270991
242,500000	0,271039
242,000000	0,272977
241,500000	0,274084
241,000000	0,274539
240,500000	0,274387
240,000000	0,273940
239,500000	0,275260
239,000000	0,277122
238,500000	0,278146
238,000000	0,278506
237,500000	0,278613
237,000000	0,279533
236,500000	0,280821
236,000000	0,281838
235,500000	0,282197
235,000000	0,282368
234,500000	0,283889
234,000000	0,286086
233,500000	0,286084
233,000000	0,284422
232,500000	0,284654
232,000000	0,285283
231,500000	0,284214
231,000000	0,283539
230,500000	0,285024
230,000000	0,284837
229,500000	0,283525
229,000000	0,284098
228,500000	0,284937
228,000000	0,284902
227,500000	0,284961
227,000000	0,285135
226,500000	0,285853
226,000000	0,285309
225,500000	0,283801
225,000000	0,283096
224,500000	0,283738
224,000000	0,284513
223,500000	0,283117
223,000000	0,283033
222,500000	0,283062
222,000000	0,282572
221,500000	0,283921
221,000000	0,284317
220,500000	0,285091
220,000000	0,284811
219,500000	0,282844
219,000000	0,281605
218,500000	0,283082
218,000000	0,284842
217,500000	0,283691
217,000000	0,284630
216,500000	0,282827
216,000000	0,282067
215,500000	0,284309
215,000000	0,285231
214,500000	0,286351
214,000000	0,286180
213,500000	0,286920
213,000000	0,289240
212,500000	0,287822
212,000000	0,288173
211,500000	0,291189
211,000000	0,291700
210,500000	0,291695
210,000000	0,291762
209,500000	0,293906
209,000000	0,293580
208,500000	0,295698
208,000000	0,297438
207,500000	0,298444
207,000000	0,298770
206,500000	0,300290
206,000000	0,302456
205,500000	0,305324
205,000000	0,306448
204,500000	0,306102
204,000000	0,304772
203,500000	0,307589
203,000000	0,309002
202,500000	0,308513
202,000000	0,310408
201,500000	0,314064
201,000000	0,316404
200,500000	0,317891
200,000000	0,318740
