PE UV       SUBTECH     SPECTRUM    ASCII       PEDS        4.00        
   -1
ug11_fine.Sample.asc
22/03/18
14:32:21.00
22/03/18
14:32:21.00
Administrator

200,000000
1
Lambda 1050
1050L1808311
PerkinElmer UV WinLab 6.4.0.973 / 2.02.11 Lambda 900 UV/VIS/NIR, May 23 2018 11:23:04

0
0
3350/servo 1800,8/servo 860,8/2
0
0
UV/VIS
1
1
1
CommonBeamDepol,RBeamAtt,SBeamAtt,uv/vis/nir detector, TDS WB InGaAs Detector
0
0
0
0
Program
 
0
3350/0,2 1800,8/0,2 860,8/0,2
0
0
0
 
 
 
0
 
860,8
319,2
1800,8 860,8
Front
100
on
S:100 R:100
 
0
0
0
 
0
 
 
 
0
 
 
0
0
0
0
0
 
 
 
 
0
0


0
0
#HDR
-1
-1
#GR
nm
%T
1.0
0.0
450,000000
-0,500000
501
8
76,256059
-0,001328
#DATA
450,000000	0,004242
449,500000	0,010428
449,000000	0,009816
448,500000	0,007752
448,000000	0,010050
447,500000	0,008594
447,000000	0,009927
446,500000	0,007263
446,000000	0,007262
445,500000	0,007015
445,000000	0,002295
444,500000	0,003138
444,000000	0,000603
443,500000	0,000844
443,000000	-0,001206
442,500000	-0,000603
442,000000	-0,001328
441,500000	0,000241
441,000000	0,001207
440,500000	0,002173
440,000000	0,002777
439,500000	0,002052
439,000000	0,001811
438,500000	0,000724
438,000000	0,002295
437,500000	0,003624
437,000000	0,001934
436,500000	0,003866
436,000000	0,001932
435,500000	0,002777
435,000000	0,001328
434,500000	0,003261
434,000000	0,003624
433,500000	0,000966
433,000000	0,002296
432,500000	0,002538
432,000000	0,003989
431,500000	0,002538
431,000000	0,003626
430,500000	0,006040
430,000000	0,003624
429,500000	0,003987
429,000000	0,004471
428,500000	0,004109
428,000000	0,001934
427,500000	0,004593
427,000000	0,003868
426,500000	0,003748
426,000000	0,004352
425,500000	0,004231
425,000000	0,004958
424,500000	0,004595
424,000000	0,004233
423,500000	0,003629
423,000000	0,003145
422,500000	0,004839
422,000000	0,004840
421,500000	0,003146
421,000000	0,003389
420,500000	0,003147
420,000000	0,003995
419,500000	0,003027
419,000000	0,003876
418,500000	0,005571
418,000000	0,005209
417,500000	0,004846
417,000000	0,000485
416,500000	0,002424
416,000000	0,002909
415,500000	0,005577
415,000000	0,005456
414,500000	0,003638
414,000000	0,004608
413,500000	0,004124
413,000000	0,002183
412,500000	0,004489
412,000000	0,005462
411,500000	0,005098
411,000000	0,004371
410,500000	0,004979
410,000000	0,002915
409,500000	0,002065
409,000000	0,003402
408,500000	0,004496
408,000000	0,005104
407,500000	0,005470
407,000000	0,004377
406,500000	0,003526
406,000000	0,003527
405,500000	0,004014
405,000000	0,006205
404,500000	0,005963
404,000000	0,004504
403,500000	0,004748
403,000000	0,004992
402,500000	0,005237
402,000000	0,006213
401,500000	0,007068
401,000000	0,004754
400,500000	0,006950
400,000000	0,006951
399,500000	0,006587
399,000000	0,007320
398,500000	0,010737
398,000000	0,013181
397,500000	0,016357
397,000000	0,021124
396,500000	0,028092
396,000000	0,039825
395,500000	0,055964
395,000000	0,075045
394,500000	0,101709
394,000000	0,138525
393,500000	0,186853
393,000000	0,248155
392,500000	0,329591
392,000000	0,431440
391,500000	0,556862
391,000000	0,715112
390,500000	0,907716
390,000000	1,137728
389,500000	1,416105
389,000000	1,745076
388,500000	2,130451
388,000000	2,576645
387,500000	3,091512
387,000000	3,674978
386,500000	4,338041
386,000000	5,080223
385,500000	5,895163
385,000000	6,793272
384,500000	7,777121
384,000000	8,838523
383,500000	9,982341
383,000000	11,202090
382,500000	12,485430
382,000000	13,830813
381,500000	15,231507
381,000000	16,684461
380,500000	18,187198
380,000000	19,737116
379,500000	21,314137
379,000000	23,167102
378,500000	24,969495
378,000000	26,561450
377,500000	28,179823
377,000000	29,806014
376,500000	31,452427
376,000000	33,065897
375,500000	34,623718
375,000000	36,170021
374,500000	37,713713
374,000000	39,216988
373,500000	40,682886
373,000000	42,095706
372,500000	43,494500
372,000000	44,874717
371,500000	46,193361
371,000000	47,485422
370,500000	48,726926
370,000000	49,885692
369,500000	51,015582
369,000000	52,148256
368,500000	53,239923
368,000000	54,263530
367,500000	55,251627
367,000000	56,215510
366,500000	57,143152
366,000000	58,018176
365,500000	58,859311
365,000000	59,687568
364,500000	60,470803
364,000000	61,238602
363,500000	61,931017
363,000000	62,590541
362,500000	63,261463
362,000000	63,881991
361,500000	64,472289
361,000000	65,070642
360,500000	65,590413
360,000000	66,081238
359,500000	66,576475
359,000000	67,050996
358,500000	67,470828
358,000000	67,863784
357,500000	68,288071
357,000000	68,673238
356,500000	69,069559
356,000000	69,429032
355,500000	69,738201
355,000000	70,053972
354,500000	70,341572
354,000000	70,661018
353,500000	70,963077
353,000000	71,193685
352,500000	71,461139
352,000000	71,712477
351,500000	71,887705
351,000000	72,113554
350,500000	72,330408
350,000000	72,555656
349,500000	72,770791
349,000000	72,966290
348,500000	73,054637
348,000000	73,245229
347,500000	73,371081
347,000000	73,527317
346,500000	73,689062
346,000000	73,791270
345,500000	73,904736
345,000000	74,051281
344,500000	74,194108
344,000000	74,299726
343,500000	74,440245
343,000000	74,587744
342,500000	74,621360
342,000000	74,787474
341,500000	74,859224
341,000000	74,995246
340,500000	75,125430
340,000000	75,192463
339,500000	75,230920
339,000000	75,307715
338,500000	75,387823
338,000000	75,474855
337,500000	75,581932
337,000000	75,678273
336,500000	75,762755
336,000000	75,806430
335,500000	75,897831
335,000000	75,899527
334,500000	75,945472
334,000000	76,004132
333,500000	75,966145
333,000000	76,082698
332,500000	76,104590
332,000000	76,133515
331,500000	76,139838
331,000000	76,120835
330,500000	76,083364
330,000000	76,118262
329,500000	76,212454
329,000000	76,256059
328,500000	76,172384
328,000000	76,154212
327,500000	76,106014
327,000000	76,147716
326,500000	76,151302
326,000000	76,108495
325,500000	76,061166
325,000000	75,995515
324,500000	76,042865
324,000000	76,011343
323,500000	75,994942
323,000000	75,947177
322,500000	75,905872
322,000000	75,830533
321,500000	75,845236
321,000000	75,771758
320,500000	75,673713
320,000000	75,631274
319,500000	75,554281
319,000000	75,258098
318,500000	75,186386
318,000000	75,141293
317,500000	75,064854
317,000000	75,017846
316,500000	74,926834
316,000000	74,856418
315,500000	74,792350
315,000000	74,730656
314,500000	74,625040
314,000000	74,515525
313,500000	74,432554
313,000000	74,367381
312,500000	74,228898
312,000000	74,154585
311,500000	74,078260
311,000000	73,938065
310,500000	73,831244
310,000000	73,724823
309,500000	73,573777
309,000000	73,466652
308,500000	73,352140
308,000000	73,197589
307,500000	73,068191
307,000000	72,912975
306,500000	72,755254
306,000000	72,587807
305,500000	72,454530
305,000000	72,261586
304,500000	72,113964
304,000000	71,904804
303,500000	71,735157
303,000000	71,551599
302,500000	71,324957
302,000000	71,108825
301,500000	70,862307
301,000000	70,638030
300,500000	70,374429
300,000000	70,129786
299,500000	69,886943
299,000000	69,594303
298,500000	69,316225
298,000000	69,027419
297,500000	68,724871
297,000000	68,428150
296,500000	68,098620
296,000000	67,779734
295,500000	67,440629
295,000000	67,066565
294,500000	66,677239
294,000000	66,286040
293,500000	65,885406
293,000000	65,474883
292,500000	65,057391
292,000000	64,610407
291,500000	64,148055
291,000000	63,684208
290,500000	63,193071
290,000000	62,655339
289,500000	62,083311
289,000000	61,503471
288,500000	60,901626
288,000000	60,238557
287,500000	59,593984
287,000000	58,920131
286,500000	58,185613
286,000000	57,443028
285,500000	56,696563
285,000000	55,954650
284,500000	55,183290
284,000000	54,426704
283,500000	53,682772
283,000000	52,926413
282,500000	52,150106
282,000000	51,356872
281,500000	50,561413
281,000000	49,747557
280,500000	48,928964
280,000000	48,096593
279,500000	47,236859
279,000000	46,372250
278,500000	45,476318
278,000000	44,563195
277,500000	43,630052
277,000000	42,668315
276,500000	41,678220
276,000000	40,666065
275,500000	39,636177
275,000000	38,603690
274,500000	37,543494
274,000000	36,480362
273,500000	35,388380
273,000000	34,274047
272,500000	33,129313
272,000000	31,970580
271,500000	30,790718
271,000000	29,601692
270,500000	28,439078
270,000000	27,303733
269,500000	26,188469
269,000000	25,114065
268,500000	24,062237
268,000000	23,038988
267,500000	22,031878
267,000000	21,030300
266,500000	20,034209
266,000000	19,051812
265,500000	18,067196
265,000000	17,088563
264,500000	16,124631
264,000000	15,176079
263,500000	14,251646
263,000000	13,353752
262,500000	12,475943
262,000000	11,628048
261,500000	10,806589
261,000000	10,012010
260,500000	9,250776
260,000000	8,509689
259,500000	7,797004
259,000000	7,112322
258,500000	6,455854
258,000000	5,833683
257,500000	5,244488
257,000000	4,685221
256,500000	4,153988
256,000000	3,658735
255,500000	3,203768
255,000000	2,786446
254,500000	2,405836
254,000000	2,062633
253,500000	1,755975
253,000000	1,480160
252,500000	1,237324
252,000000	1,028890
251,500000	0,844398
251,000000	0,685052
250,500000	0,552248
250,000000	0,438496
249,500000	0,345951
249,000000	0,269245
248,500000	0,205239
248,000000	0,152486
247,500000	0,111648
247,000000	0,081811
246,500000	0,058066
246,000000	0,041473
245,500000	0,028189
245,000000	0,018626
244,500000	0,011048
244,000000	0,005860
243,500000	0,003998
243,000000	0,003867
242,500000	0,002402
242,000000	0,001336
241,500000	-0,001203
241,000000	-0,000802
240,500000	0,000803
240,000000	0,000402
239,500000	0,000670
239,000000	0,000805
238,500000	0,001209
238,000000	0,000672
237,500000	0,000942
237,000000	0,001885
236,500000	0,001213
236,000000	0,002292
235,500000	0,002024
235,000000	0,000945
234,500000	0,001892
234,000000	0,002028
233,500000	0,001623
233,000000	0,001353
232,500000	0,002166
232,000000	0,004197
231,500000	0,002437
231,000000	0,001354
230,500000	0,002166
230,000000	0,002843
229,500000	0,002165
229,000000	0,001488
228,500000	0,003381
228,000000	0,002973
227,500000	0,002701
227,000000	0,003374
226,500000	0,004180
226,000000	0,005388
225,500000	0,004844
225,000000	0,003092
224,500000	0,002551
224,000000	0,004561
223,500000	0,005494
223,000000	0,004282
222,500000	0,004678
222,000000	0,003604
221,500000	0,004532
221,000000	0,005590
220,500000	0,005051
220,000000	0,004645
219,500000	0,003711
219,000000	0,003972
218,500000	0,005289
218,000000	0,006867
217,500000	0,005144
217,000000	0,005664
216,500000	0,008024
216,000000	0,008408
215,500000	0,006822
215,000000	0,006027
214,500000	0,006020
214,000000	0,006537
213,500000	0,007052
213,000000	0,006523
212,500000	0,008734
212,000000	0,009246
211,500000	0,007807
211,000000	0,007150
210,500000	0,010520
210,000000	0,009474
209,500000	0,008820
209,000000	0,008814
208,500000	0,009585
208,000000	0,010614
207,500000	0,010737
207,000000	0,011635
206,500000	0,012275
206,000000	0,013948
205,500000	0,015105
205,000000	0,013935
204,500000	0,013925
204,000000	0,012242
203,500000	0,013653
203,000000	0,013133
202,500000	0,012871
202,000000	0,014800
201,500000	0,013638
201,000000	0,015692
200,500000	0,017875
200,000000	0,015815
